Sweep (V)@Temporary,Measure (A)@Temporary
 0.00000E+0, 3.89581E-7
 1.00000E-4, 3.89581E-7
 2.00000E-4, 4.20817E-7
 3.00000E-4, 4.83290E-7
 4.00000E-4, 5.76998E-7
 5.00000E-4, 6.08234E-7
 6.00000E-4, 5.76998E-7
 7.00000E-4, 6.39470E-7
 8.00000E-4, 7.01942E-7
 9.00000E-4, 7.01942E-7
 1.00000E-3, 7.01942E-7
 1.10000E-3, 7.01942E-7
 1.20000E-3, 7.01942E-7
 1.30000E-3, 7.01942E-7
 1.40000E-3, 7.01942E-7
 1.50000E-3, 7.01942E-7
 1.60000E-3, 7.01942E-7
 1.70000E-3, 7.01942E-7
 1.80000E-3, 7.33178E-7
 1.90000E-3, 7.64414E-7
 2.00000E-3, 7.01942E-7
 2.10000E-3, 7.95650E-7
 2.20000E-3, 8.58122E-7
 2.30000E-3, 8.58122E-7
 2.40000E-3, 8.26886E-7
 2.50000E-3, 8.26886E-7
 2.60000E-3, 8.58122E-7
 2.70000E-3, 8.58122E-7
 2.80000E-3, 8.58122E-7
 2.90000E-3, 8.58122E-7
 3.00000E-3, 8.58122E-7
 3.10000E-3, 8.58122E-7
 3.20000E-3, 8.58122E-7
 3.30000E-3, 8.58122E-7
 3.40000E-3, 8.89358E-7
 3.50000E-3, 8.89358E-7
 3.60000E-3, 9.51830E-7
 3.70000E-3, 9.83066E-7
 3.80000E-3, 1.01430E-6
 3.90000E-3, 1.01430E-6
 4.00000E-3, 1.01430E-6
 4.10000E-3, 1.01430E-6
 4.20000E-3, 1.01430E-6
 4.30000E-3, 1.04554E-6
 4.40000E-3, 1.04554E-6
 4.50000E-3, 1.07677E-6
 4.60000E-3, 1.13925E-6
 4.70000E-3, 1.20172E-6
 4.80000E-3, 1.26419E-6
 4.90000E-3, 1.20172E-6
 5.00000E-3, 1.29543E-6
 5.10000E-3, 1.29543E-6
 5.20000E-3, 1.32666E-6
 5.30000E-3, 1.32666E-6
 5.40000E-3, 1.32666E-6
 5.50000E-3, 1.32666E-6
 5.60000E-3, 1.32666E-6
 5.70000E-3, 1.32666E-6
 5.80000E-3, 1.32666E-6
 5.90000E-3, 1.35790E-6
 6.00000E-3, 1.32666E-6
 6.10000E-3, 1.38913E-6
 6.20000E-3, 1.48284E-6
 6.30000E-3, 1.42037E-6
 6.40000E-3, 1.48284E-6
 6.50000E-3, 1.48284E-6
 6.60000E-3, 1.48284E-6
 6.70000E-3, 1.48284E-6
 6.80000E-3, 1.48284E-6
 6.90000E-3, 1.48284E-6
 7.00000E-3, 1.48284E-6
 7.10000E-3, 1.48284E-6
 7.20000E-3, 1.48284E-6
 7.30000E-3, 1.48284E-6
 7.40000E-3, 1.57655E-6
 7.50000E-3, 1.54531E-6
 7.60000E-3, 1.60779E-6
 7.70000E-3, 1.63902E-6
 7.80000E-3, 1.63902E-6
 7.90000E-3, 1.63902E-6
 8.00000E-3, 1.67026E-6
 8.10000E-3, 1.73273E-6
 8.20000E-3, 1.76397E-6
 8.30000E-3, 1.79520E-6
 8.40000E-3, 1.79520E-6
 8.50000E-3, 1.82644E-6
 8.60000E-3, 1.88891E-6
 8.70000E-3, 1.88891E-6
 8.80000E-3, 1.95138E-6
 8.90000E-3, 1.95138E-6
 9.00000E-3, 1.95138E-6
 9.10000E-3, 1.95138E-6
 9.20000E-3, 1.95138E-6
 9.30000E-3, 1.95138E-6
 9.40000E-3, 1.95138E-6
 9.50000E-3, 1.95138E-6
 9.60000E-3, 1.95138E-6
 9.70000E-3, 2.01386E-6
 9.80000E-3, 2.07633E-6
 9.90000E-3, 2.04509E-6
 1.00000E-2, 2.07633E-6
 1.01000E-2, 2.10756E-6
 1.02000E-2, 2.10756E-6
 1.03000E-2, 2.10756E-6
 1.04000E-2, 2.10756E-6
 1.05000E-2, 2.10756E-6
 1.06000E-2, 2.10756E-6
 1.07000E-2, 2.13880E-6
 1.08000E-2, 2.20127E-6
 1.09000E-2, 2.17004E-6
 1.10000E-2, 2.26374E-6
 1.11000E-2, 2.26374E-6
 1.12000E-2, 2.26374E-6
 1.13000E-2, 2.26374E-6
 1.14000E-2, 2.29498E-6
 1.15000E-2, 2.41992E-6
 1.16000E-2, 2.41992E-6
 1.17000E-2, 2.41992E-6
 1.18000E-2, 2.45116E-6
 1.19000E-2, 2.48240E-6
 1.20000E-2, 2.51363E-6
 1.21000E-2, 2.57610E-6
 1.22000E-2, 2.57610E-6
 1.23000E-2, 2.57610E-6
 1.24000E-2, 2.57610E-6
 1.25000E-2, 2.57610E-6
 1.26000E-2, 2.57610E-6
 1.27000E-2, 2.57610E-6
 1.28000E-2, 2.66981E-6
 1.29000E-2, 2.73228E-6
 1.30000E-2, 2.60734E-6
 1.31000E-2, 2.63858E-6
 1.32000E-2, 2.73228E-6
 1.33000E-2, 2.73228E-6
 1.34000E-2, 2.73228E-6
 1.35000E-2, 2.73228E-6
 1.36000E-2, 2.73228E-6
 1.37000E-2, 2.73228E-6
 1.38000E-2, 2.73228E-6
 1.39000E-2, 2.76352E-6
 1.40000E-2, 2.73228E-6
 1.41000E-2, 2.85723E-6
 1.42000E-2, 2.88846E-6
 1.43000E-2, 2.88846E-6
 1.44000E-2, 2.91970E-6
 1.45000E-2, 3.01341E-6
 1.46000E-2, 3.04464E-6
 1.47000E-2, 3.01341E-6
 1.48000E-2, 3.04464E-6
 1.49000E-2, 3.07588E-6
 1.50000E-2, 3.13835E-6
 1.51000E-2, 3.20082E-6
 1.52000E-2, 3.20082E-6
 1.53000E-2, 3.20082E-6
 1.54000E-2, 3.20082E-6
 1.55000E-2, 3.20082E-6
 1.56000E-2, 3.20082E-6
 1.57000E-2, 3.20082E-6
 1.58000E-2, 3.26330E-6
 1.59000E-2, 3.23206E-6
 1.60000E-2, 3.35701E-6
 1.61000E-2, 3.35701E-6
 1.62000E-2, 3.35701E-6
 1.63000E-2, 3.35701E-6
 1.64000E-2, 3.35701E-6
 1.65000E-2, 3.35701E-6
 1.66000E-2, 3.35701E-6
 1.67000E-2, 3.35701E-6
 1.68000E-2, 3.48195E-6
 1.69000E-2, 3.51319E-6
 1.70000E-2, 3.48195E-6
 1.71000E-2, 3.60689E-6
 1.72000E-2, 3.66937E-6
 1.73000E-2, 3.70060E-6
 1.74000E-2, 3.66937E-6
 1.75000E-2, 3.66937E-6
 1.76000E-2, 3.76307E-6
 1.77000E-2, 3.79431E-6
 1.78000E-2, 3.82555E-6
 1.79000E-2, 3.82555E-6
 1.80000E-2, 3.82555E-6
 1.81000E-2, 3.82555E-6
 1.82000E-2, 3.82555E-6
 1.83000E-2, 3.82555E-6
 1.84000E-2, 3.85678E-6
 1.85000E-2, 3.91925E-6
 1.86000E-2, 3.95049E-6
 1.87000E-2, 3.95049E-6
 1.88000E-2, 3.98173E-6
 1.89000E-2, 3.98173E-6
 1.90000E-2, 3.98173E-6
 1.91000E-2, 3.98173E-6
 1.92000E-2, 3.98173E-6
 1.93000E-2, 4.07543E-6
 1.94000E-2, 4.07543E-6
 1.95000E-2, 4.16914E-6
 1.96000E-2, 4.23161E-6
 1.97000E-2, 4.26285E-6
 1.98000E-2, 4.29409E-6
 1.99000E-2, 4.29409E-6
 2.00000E-2, 4.29409E-6
 2.01000E-2, 4.41903E-6
 2.02000E-2, 4.45027E-6
 2.03000E-2, 4.45027E-6
 2.04000E-2, 4.45027E-6
 2.05000E-2, 4.45027E-6
 2.06000E-2, 4.45027E-6
 2.07000E-2, 4.45027E-6
 2.08000E-2, 4.45027E-6
 2.09000E-2, 4.48150E-6
 2.10000E-2, 4.60645E-6
 2.11000E-2, 4.57521E-6
 2.12000E-2, 4.60645E-6
 2.13000E-2, 4.60645E-6
 2.14000E-2, 4.60645E-6
 2.15000E-2, 4.60645E-6
 2.16000E-2, 4.63768E-6
 2.17000E-2, 4.66892E-6
 2.18000E-2, 4.70015E-6
 2.19000E-2, 4.82510E-6
 2.20000E-2, 4.91881E-6
 2.21000E-2, 4.91881E-6
 2.22000E-2, 4.91881E-6
 2.23000E-2, 4.98128E-6
 2.24000E-2, 4.95004E-6
 2.25000E-2, 5.04375E-6
 2.26000E-2, 5.07499E-6
 2.27000E-2, 5.07499E-6
 2.28000E-2, 5.07499E-6
 2.29000E-2, 5.07499E-6
 2.30000E-2, 5.07499E-6
 2.31000E-2, 5.07499E-6
 2.32000E-2, 5.13746E-6
 2.33000E-2, 5.23117E-6
 2.34000E-2, 5.23117E-6
 2.35000E-2, 5.23117E-6
 2.36000E-2, 5.23117E-6
 2.37000E-2, 5.23117E-6
 2.38000E-2, 5.23117E-6
 2.39000E-2, 5.35611E-6
 2.40000E-2, 5.38735E-6
 2.41000E-2, 5.44982E-6
 2.42000E-2, 5.54353E-6
 2.43000E-2, 5.54353E-6
 2.44000E-2, 5.54353E-6
 2.45000E-2, 5.54353E-6
 2.46000E-2, 5.63724E-6
 2.47000E-2, 5.69971E-6
 2.48000E-2, 5.69971E-6
 2.49000E-2, 5.69971E-6
 2.50000E-2, 5.69971E-6
 2.51000E-2, 5.69971E-6
 2.52000E-2, 5.73094E-6
 2.53000E-2, 5.79342E-6
 2.54000E-2, 5.82465E-6
 2.55000E-2, 5.85589E-6
 2.56000E-2, 5.85589E-6
 2.57000E-2, 5.85589E-6
 2.58000E-2, 5.85589E-6
 2.59000E-2, 5.98083E-6
 2.60000E-2, 6.01207E-6
 2.61000E-2, 6.13701E-6
 2.62000E-2, 6.16825E-6
 2.63000E-2, 6.16825E-6
 2.64000E-2, 6.16825E-6
 2.65000E-2, 6.16825E-6
 2.66000E-2, 6.32443E-6
 2.67000E-2, 6.32443E-6
 2.68000E-2, 6.32443E-6
 2.69000E-2, 6.32443E-6
 2.70000E-2, 6.32443E-6
 2.71000E-2, 6.32443E-6
 2.72000E-2, 6.32443E-6
 2.73000E-2, 6.44937E-6
 2.74000E-2, 6.48061E-6
 2.75000E-2, 6.48061E-6
 2.76000E-2, 6.48061E-6
 2.77000E-2, 6.48061E-6
 2.78000E-2, 6.48061E-6
 2.79000E-2, 6.57432E-6
 2.80000E-2, 6.69926E-6
 2.81000E-2, 6.79297E-6
 2.82000E-2, 6.79297E-6
 2.83000E-2, 6.82421E-6
 2.84000E-2, 6.85544E-6
 2.85000E-2, 6.91791E-6
 2.86000E-2, 6.94915E-6
 2.87000E-2, 6.94915E-6
 2.88000E-2, 6.94915E-6
 2.89000E-2, 6.94915E-6
 2.90000E-2, 6.94915E-6
 2.91000E-2, 7.07409E-6
 2.92000E-2, 7.10533E-6
 2.93000E-2, 7.10533E-6
 2.94000E-2, 7.10533E-6
 2.95000E-2, 7.13657E-6
 2.96000E-2, 7.23027E-6
 2.97000E-2, 7.23027E-6
 2.98000E-2, 7.41769E-6
 2.99000E-2, 7.41769E-6
 3.00000E-2, 7.41769E-6
 3.01000E-2, 7.48016E-6
 3.02000E-2, 7.51140E-6
 3.03000E-2, 7.57387E-6
 3.04000E-2, 7.57387E-6
 3.05000E-2, 7.57387E-6
 3.06000E-2, 7.57387E-6
 3.07000E-2, 7.60511E-6
 3.08000E-2, 7.73005E-6
 3.09000E-2, 7.73005E-6
 3.10000E-2, 7.73005E-6
 3.11000E-2, 7.73005E-6
 3.12000E-2, 7.73005E-6
 3.13000E-2, 7.85499E-6
 3.14000E-2, 7.91747E-6
 3.15000E-2, 8.01117E-6
 3.16000E-2, 8.04241E-6
 3.17000E-2, 8.07365E-6
 3.18000E-2, 8.10488E-6
 3.19000E-2, 8.19859E-6
 3.20000E-2, 8.19859E-6
 3.21000E-2, 8.19859E-6
 3.22000E-2, 8.19859E-6
 3.23000E-2, 8.22983E-6
 3.24000E-2, 8.32353E-6
 3.25000E-2, 8.32353E-6
 3.26000E-2, 8.35477E-6
 3.27000E-2, 8.35477E-6
 3.28000E-2, 8.41724E-6
 3.29000E-2, 8.51095E-6
 3.30000E-2, 8.54219E-6
 3.31000E-2, 8.66713E-6
 3.32000E-2, 8.66713E-6
 3.33000E-2, 8.69837E-6
 3.34000E-2, 8.76084E-6
 3.35000E-2, 8.82331E-6
 3.36000E-2, 8.82331E-6
 3.37000E-2, 8.82331E-6
 3.38000E-2, 8.82331E-6
 3.39000E-2, 8.88578E-6
 3.40000E-2, 8.97949E-6
 3.41000E-2, 8.97949E-6
 3.42000E-2, 8.97949E-6
 3.43000E-2, 9.01073E-6
 3.44000E-2, 9.16691E-6
 3.45000E-2, 9.26062E-6
 3.46000E-2, 9.26062E-6
 3.47000E-2, 9.29185E-6
 3.48000E-2, 9.35432E-6
 3.49000E-2, 9.38556E-6
 3.50000E-2, 9.44803E-6
 3.51000E-2, 9.44803E-6
 3.52000E-2, 9.44803E-6
 3.53000E-2, 9.47927E-6
 3.54000E-2, 9.51050E-6
 3.55000E-2, 9.60421E-6
 3.56000E-2, 9.60421E-6
 3.57000E-2, 9.60421E-6
 3.58000E-2, 9.66668E-6
 3.59000E-2, 9.82286E-6
 3.60000E-2, 9.91657E-6
 3.61000E-2, 9.91657E-6
 3.62000E-2, 9.94781E-6
 3.63000E-2, 9.97904E-6
 3.64000E-2, 1.00728E-5
 3.65000E-2, 1.00728E-5
 3.66000E-2, 1.00728E-5
 3.67000E-2, 1.01040E-5
 3.68000E-2, 1.01352E-5
 3.69000E-2, 1.02289E-5
 3.70000E-2, 1.02289E-5
 3.71000E-2, 1.02289E-5
 3.72000E-2, 1.02914E-5
 3.73000E-2, 1.04788E-5
 3.74000E-2, 1.05413E-5
 3.75000E-2, 1.05413E-5
 3.76000E-2, 1.05725E-5
 3.77000E-2, 1.06975E-5
 3.78000E-2, 1.06975E-5
 3.79000E-2, 1.06975E-5
 3.80000E-2, 1.06975E-5
 3.81000E-2, 1.07287E-5
 3.82000E-2, 1.08537E-5
 3.83000E-2, 1.08537E-5
 3.84000E-2, 1.08537E-5
 3.85000E-2, 1.09161E-5
 3.86000E-2, 1.10098E-5
 3.87000E-2, 1.11348E-5
 3.88000E-2, 1.11660E-5
 3.89000E-2, 1.11660E-5
 3.90000E-2, 1.13222E-5
 3.91000E-2, 1.13222E-5
 3.92000E-2, 1.13534E-5
 3.93000E-2, 1.13222E-5
 3.94000E-2, 1.13847E-5
 3.95000E-2, 1.14784E-5
 3.96000E-2, 1.14784E-5
 3.97000E-2, 1.14784E-5
 3.98000E-2, 1.15408E-5
 3.99000E-2, 1.17595E-5
 4.00000E-2, 1.17907E-5
 4.01000E-2, 1.17907E-5
 4.02000E-2, 1.19469E-5
 4.03000E-2, 1.19469E-5
 4.04000E-2, 1.19469E-5
 4.05000E-2, 1.19469E-5
 4.06000E-2, 1.20406E-5
 4.07000E-2, 1.21031E-5
 4.08000E-2, 1.21031E-5
 4.09000E-2, 1.21343E-5
 4.10000E-2, 1.22593E-5
 4.11000E-2, 1.23530E-5
 4.12000E-2, 1.24155E-5
 4.13000E-2, 1.24779E-5
 4.14000E-2, 1.25092E-5
 4.15000E-2, 1.25716E-5
 4.16000E-2, 1.25716E-5
 4.17000E-2, 1.26653E-5
 4.18000E-2, 1.27278E-5
 4.19000E-2, 1.27278E-5
 4.20000E-2, 1.27278E-5
 4.21000E-2, 1.27278E-5
 4.22000E-2, 1.28840E-5
 4.23000E-2, 1.29465E-5
 4.24000E-2, 1.30402E-5
 4.25000E-2, 1.31339E-5
 4.26000E-2, 1.31964E-5
 4.27000E-2, 1.31964E-5
 4.28000E-2, 1.32276E-5
 4.29000E-2, 1.31964E-5
 4.30000E-2, 1.33525E-5
 4.31000E-2, 1.33525E-5
 4.32000E-2, 1.33525E-5
 4.33000E-2, 1.34775E-5
 4.34000E-2, 1.35712E-5
 4.35000E-2, 1.36649E-5
 4.36000E-2, 1.37586E-5
 4.37000E-2, 1.38211E-5
 4.38000E-2, 1.38211E-5
 4.39000E-2, 1.38835E-5
 4.40000E-2, 1.39148E-5
 4.41000E-2, 1.39773E-5
 4.42000E-2, 1.39773E-5
 4.43000E-2, 1.40397E-5
 4.44000E-2, 1.41334E-5
 4.45000E-2, 1.42584E-5
 4.46000E-2, 1.43209E-5
 4.47000E-2, 1.44458E-5
 4.48000E-2, 1.44458E-5
 4.49000E-2, 1.44458E-5
 4.50000E-2, 1.46020E-5
 4.51000E-2, 1.46020E-5
 4.52000E-2, 1.46020E-5
 4.53000E-2, 1.46332E-5
 4.54000E-2, 1.47269E-5
 4.55000E-2, 1.47582E-5
 4.56000E-2, 1.48831E-5
 4.57000E-2, 1.49143E-5
 4.58000E-2, 1.50705E-5
 4.59000E-2, 1.50705E-5
 4.60000E-2, 1.51330E-5
 4.61000E-2, 1.52267E-5
 4.62000E-2, 1.52267E-5
 4.63000E-2, 1.52267E-5
 4.64000E-2, 1.53204E-5
 4.65000E-2, 1.53829E-5
 4.66000E-2, 1.54141E-5
 4.67000E-2, 1.56015E-5
 4.68000E-2, 1.56952E-5
 4.69000E-2, 1.56952E-5
 4.70000E-2, 1.58514E-5
 4.71000E-2, 1.58514E-5
 4.72000E-2, 1.58514E-5
 4.73000E-2, 1.58514E-5
 4.74000E-2, 1.60076E-5
 4.75000E-2, 1.60076E-5
 4.76000E-2, 1.60701E-5
 4.77000E-2, 1.62575E-5
 4.78000E-2, 1.63200E-5
 4.79000E-2, 1.63512E-5
 4.80000E-2, 1.64761E-5
 4.81000E-2, 1.64761E-5
 4.82000E-2, 1.65074E-5
 4.83000E-2, 1.66011E-5
 4.84000E-2, 1.66323E-5
 4.85000E-2, 1.66323E-5
 4.86000E-2, 1.67573E-5
 4.87000E-2, 1.69447E-5
 4.88000E-2, 1.69447E-5
 4.89000E-2, 1.70696E-5
 4.90000E-2, 1.71009E-5
 4.91000E-2, 1.71009E-5
 4.92000E-2, 1.72258E-5
 4.93000E-2, 1.72258E-5
 4.94000E-2, 1.72570E-5
 4.95000E-2, 1.73820E-5
 4.96000E-2, 1.75694E-5
 4.97000E-2, 1.75694E-5
 4.98000E-2, 1.76943E-5
 4.99000E-2, 1.77256E-5
 5.00000E-2, 1.77256E-5
 5.01000E-2, 1.78505E-5
 5.02000E-2, 1.78818E-5
 5.03000E-2, 1.78818E-5
 5.04000E-2, 1.80379E-5
 5.05000E-2, 1.81317E-5
 5.06000E-2, 1.82254E-5
 5.07000E-2, 1.83503E-5
 5.08000E-2, 1.83503E-5
 5.09000E-2, 1.84128E-5
 5.10000E-2, 1.84752E-5
 5.11000E-2, 1.85065E-5
 5.12000E-2, 1.86002E-5
 5.13000E-2, 1.87564E-5
 5.14000E-2, 1.88188E-5
 5.15000E-2, 1.89438E-5
 5.16000E-2, 1.89750E-5
 5.17000E-2, 1.89750E-5
 5.18000E-2, 1.90375E-5
 5.19000E-2, 1.91312E-5
 5.20000E-2, 1.91624E-5
 5.21000E-2, 1.93186E-5
 5.22000E-2, 1.94123E-5
 5.23000E-2, 1.94748E-5
 5.24000E-2, 1.95997E-5
 5.25000E-2, 1.96310E-5
 5.26000E-2, 1.97559E-5
 5.27000E-2, 1.97559E-5
 5.28000E-2, 1.97872E-5
 5.29000E-2, 1.99121E-5
 5.30000E-2, 1.99433E-5
 5.31000E-2, 2.01932E-5
 5.32000E-2, 2.02245E-5
 5.33000E-2, 2.02245E-5
 5.34000E-2, 2.03806E-5
 5.35000E-2, 2.03806E-5
 5.36000E-2, 2.04119E-5
 5.37000E-2, 2.05056E-5
 5.38000E-2, 2.05681E-5
 5.39000E-2, 2.07555E-5
 5.40000E-2, 2.08492E-5
 5.41000E-2, 2.09117E-5
 5.42000E-2, 2.10054E-5
 5.43000E-2, 2.10054E-5
 5.44000E-2, 2.11303E-5
 5.45000E-2, 2.11615E-5
 5.46000E-2, 2.11928E-5
 5.47000E-2, 2.14427E-5
 5.48000E-2, 2.14739E-5
 5.49000E-2, 2.15989E-5
 5.50000E-2, 2.16301E-5
 5.51000E-2, 2.16301E-5
 5.52000E-2, 2.17863E-5
 5.53000E-2, 2.17863E-5
 5.54000E-2, 2.19424E-5
 5.55000E-2, 2.20674E-5
 5.56000E-2, 2.21611E-5
 5.57000E-2, 2.22236E-5
 5.58000E-2, 2.22548E-5
 5.59000E-2, 2.23798E-5
 5.60000E-2, 2.24110E-5
 5.61000E-2, 2.24735E-5
 5.62000E-2, 2.26296E-5
 5.63000E-2, 2.28171E-5
 5.64000E-2, 2.28795E-5
 5.65000E-2, 2.28795E-5
 5.66000E-2, 2.29732E-5
 5.67000E-2, 2.30357E-5
 5.68000E-2, 2.30669E-5
 5.69000E-2, 2.31607E-5
 5.70000E-2, 2.33481E-5
 5.71000E-2, 2.35042E-5
 5.72000E-2, 2.35042E-5
 5.73000E-2, 2.36292E-5
 5.74000E-2, 2.36604E-5
 5.75000E-2, 2.37229E-5
 5.76000E-2, 2.38166E-5
 5.77000E-2, 2.39416E-5
 5.78000E-2, 2.41290E-5
 5.79000E-2, 2.41290E-5
 5.80000E-2, 2.42852E-5
 5.81000E-2, 2.42852E-5
 5.82000E-2, 2.43476E-5
 5.83000E-2, 2.44413E-5
 5.84000E-2, 2.45663E-5
 5.85000E-2, 2.47537E-5
 5.86000E-2, 2.48162E-5
 5.87000E-2, 2.49099E-5
 5.88000E-2, 2.49411E-5
 5.89000E-2, 2.50348E-5
 5.90000E-2, 2.50661E-5
 5.91000E-2, 2.51910E-5
 5.92000E-2, 2.53784E-5
 5.93000E-2, 2.55346E-5
 5.94000E-2, 2.55346E-5
 5.95000E-2, 2.55658E-5
 5.96000E-2, 2.56908E-5
 5.97000E-2, 2.57532E-5
 5.98000E-2, 2.58782E-5
 5.99000E-2, 2.60656E-5
 6.00000E-2, 2.61593E-5
 6.01000E-2, 2.62530E-5
 6.02000E-2, 2.62843E-5
 6.03000E-2, 2.63155E-5
 6.04000E-2, 2.64717E-5
 6.05000E-2, 2.66279E-5
 6.06000E-2, 2.67528E-5
 6.07000E-2, 2.67840E-5
 6.08000E-2, 2.69402E-5
 6.09000E-2, 2.69402E-5
 6.10000E-2, 2.70652E-5
 6.11000E-2, 2.71589E-5
 6.12000E-2, 2.73463E-5
 6.13000E-2, 2.74088E-5
 6.14000E-2, 2.75649E-5
 6.15000E-2, 2.75649E-5
 6.16000E-2, 2.77211E-5
 6.17000E-2, 2.77211E-5
 6.18000E-2, 2.78773E-5
 6.19000E-2, 2.80959E-5
 6.20000E-2, 2.81584E-5
 6.21000E-2, 2.81897E-5
 6.22000E-2, 2.83146E-5
 6.23000E-2, 2.83771E-5
 6.24000E-2, 2.84708E-5
 6.25000E-2, 2.86582E-5
 6.26000E-2, 2.88144E-5
 6.27000E-2, 2.89081E-5
 6.28000E-2, 2.89706E-5
 6.29000E-2, 2.90330E-5
 6.30000E-2, 2.91892E-5
 6.31000E-2, 2.93454E-5
 6.32000E-2, 2.94391E-5
 6.33000E-2, 2.95953E-5
 6.34000E-2, 2.95953E-5
 6.35000E-2, 2.96577E-5
 6.36000E-2, 2.97515E-5
 6.37000E-2, 2.99389E-5
 6.38000E-2, 3.00951E-5
 6.39000E-2, 3.02200E-5
 6.40000E-2, 3.02512E-5
 6.41000E-2, 3.03762E-5
 6.42000E-2, 3.04074E-5
 6.43000E-2, 3.05948E-5
 6.44000E-2, 3.07822E-5
 6.45000E-2, 3.08447E-5
 6.46000E-2, 3.09697E-5
 6.47000E-2, 3.10009E-5
 6.48000E-2, 3.11571E-5
 6.49000E-2, 3.12196E-5
 6.50000E-2, 3.14382E-5
 6.51000E-2, 3.15319E-5
 6.52000E-2, 3.16256E-5
 6.53000E-2, 3.16881E-5
 6.54000E-2, 3.17818E-5
 6.55000E-2, 3.20317E-5
 6.56000E-2, 3.20942E-5
 6.57000E-2, 3.22503E-5
 6.58000E-2, 3.22503E-5
 6.59000E-2, 3.24065E-5
 6.60000E-2, 3.25627E-5
 6.61000E-2, 3.27189E-5
 6.62000E-2, 3.28751E-5
 6.63000E-2, 3.29688E-5
 6.64000E-2, 3.30312E-5
 6.65000E-2, 3.30937E-5
 6.66000E-2, 3.32499E-5
 6.67000E-2, 3.34998E-5
 6.68000E-2, 3.35310E-5
 6.69000E-2, 3.36560E-5
 6.70000E-2, 3.37184E-5
 6.71000E-2, 3.38121E-5
 6.72000E-2, 3.40620E-5
 6.73000E-2, 3.41557E-5
 6.74000E-2, 3.42807E-5
 6.75000E-2, 3.42807E-5
 6.76000E-2, 3.44369E-5
 6.77000E-2, 3.45618E-5
 6.78000E-2, 3.47492E-5
 6.79000E-2, 3.49054E-5
 6.80000E-2, 3.50303E-5
 6.81000E-2, 3.50616E-5
 6.82000E-2, 3.51865E-5
 6.83000E-2, 3.52802E-5
 6.84000E-2, 3.55301E-5
 6.85000E-2, 3.56863E-5
 6.86000E-2, 3.56863E-5
 6.87000E-2, 3.58425E-5
 6.88000E-2, 3.59362E-5
 6.89000E-2, 3.61861E-5
 6.90000E-2, 3.63110E-5
 6.91000E-2, 3.63423E-5
 6.92000E-2, 3.64672E-5
 6.93000E-2, 3.65609E-5
 6.94000E-2, 3.67796E-5
 6.95000E-2, 3.69357E-5
 6.96000E-2, 3.70919E-5
 6.97000E-2, 3.70919E-5
 6.98000E-2, 3.72481E-5
 6.99000E-2, 3.74043E-5
 7.00000E-2, 3.75605E-5
 7.01000E-2, 3.77166E-5
 7.02000E-2, 3.78728E-5
 7.03000E-2, 3.78728E-5
 7.04000E-2, 3.80602E-5
 7.05000E-2, 3.83101E-5
 7.06000E-2, 3.83414E-5
 7.07000E-2, 3.84975E-5
 7.08000E-2, 3.86537E-5
 7.09000E-2, 3.86850E-5
 7.10000E-2, 3.89661E-5
 7.11000E-2, 3.90910E-5
 7.12000E-2, 3.91847E-5
 7.13000E-2, 3.92784E-5
 7.14000E-2, 3.94346E-5
 7.15000E-2, 3.96220E-5
 7.16000E-2, 3.97470E-5
 7.17000E-2, 3.99032E-5
 7.18000E-2, 3.99656E-5
 7.19000E-2, 4.01531E-5
 7.20000E-2, 4.03717E-5
 7.21000E-2, 4.04967E-5
 7.22000E-2, 4.05279E-5
 7.23000E-2, 4.06841E-5
 7.24000E-2, 4.09027E-5
 7.25000E-2, 4.10901E-5
 7.26000E-2, 4.11526E-5
 7.27000E-2, 4.13088E-5
 7.28000E-2, 4.14650E-5
 7.29000E-2, 4.15587E-5
 7.30000E-2, 4.17773E-5
 7.31000E-2, 4.19335E-5
 7.32000E-2, 4.19647E-5
 7.33000E-2, 4.21209E-5
 7.34000E-2, 4.23396E-5
 7.35000E-2, 4.25582E-5
 7.36000E-2, 4.26519E-5
 7.37000E-2, 4.27144E-5
 7.38000E-2, 4.28706E-5
 7.39000E-2, 4.30892E-5
 7.40000E-2, 4.32142E-5
 7.41000E-2, 4.33391E-5
 7.42000E-2, 4.34953E-5
 7.43000E-2, 4.36515E-5
 7.44000E-2, 4.38701E-5
 7.45000E-2, 4.39951E-5
 7.46000E-2, 4.41200E-5
 7.47000E-2, 4.42137E-5
 7.48000E-2, 4.45573E-5
 7.49000E-2, 4.46198E-5
 7.50000E-2, 4.47448E-5
 7.51000E-2, 4.49009E-5
 7.52000E-2, 4.49634E-5
 7.53000E-2, 4.52758E-5
 7.54000E-2, 4.53695E-5
 7.55000E-2, 4.55257E-5
 7.56000E-2, 4.56818E-5
 7.57000E-2, 4.59942E-5
 7.58000E-2, 4.60567E-5
 7.59000E-2, 4.61504E-5
 7.60000E-2, 4.63066E-5
 7.61000E-2, 4.64315E-5
 7.62000E-2, 4.67751E-5
 7.63000E-2, 4.69000E-5
 7.64000E-2, 4.69625E-5
 7.65000E-2, 4.70875E-5
 7.66000E-2, 4.73061E-5
 7.67000E-2, 4.75248E-5
 7.68000E-2, 4.76185E-5
 7.69000E-2, 4.77122E-5
 7.70000E-2, 4.79308E-5
 7.71000E-2, 4.81807E-5
 7.72000E-2, 4.83369E-5
 7.73000E-2, 4.83994E-5
 7.74000E-2, 4.85868E-5
 7.75000E-2, 4.87742E-5
 7.76000E-2, 4.89616E-5
 7.77000E-2, 4.91178E-5
 7.78000E-2, 4.92115E-5
 7.79000E-2, 4.94926E-5
 7.80000E-2, 4.96488E-5
 7.81000E-2, 4.97738E-5
 7.82000E-2, 4.98987E-5
 7.83000E-2, 5.01174E-5
 7.84000E-2, 5.03672E-5
 7.85000E-2, 5.05234E-5
 7.86000E-2, 5.06171E-5
 7.87000E-2, 5.07108E-5
 7.88000E-2, 5.10544E-5
 7.89000E-2, 5.11481E-5
 7.90000E-2, 5.13043E-5
 7.91000E-2, 5.14605E-5
 7.92000E-2, 5.17729E-5
 7.93000E-2, 5.18978E-5
 7.94000E-2, 5.20228E-5
 7.95000E-2, 5.21477E-5
 7.96000E-2, 5.24288E-5
 7.97000E-2, 5.26162E-5
 7.98000E-2, 5.27099E-5
 7.99000E-2, 5.28974E-5
 8.00000E-2, 5.31160E-5
 8.01000E-2, 5.33347E-5
 8.02000E-2, 5.34908E-5
 8.03000E-2, 5.36470E-5
 8.04000E-2, 5.38657E-5
 8.05000E-2, 5.40531E-5
 8.06000E-2, 5.41468E-5
 8.07000E-2, 5.43030E-5
 8.08000E-2, 5.46153E-5
 8.09000E-2, 5.47715E-5
 8.10000E-2, 5.48965E-5
 8.11000E-2, 5.50526E-5
 8.12000E-2, 5.53962E-5
 8.13000E-2, 5.55524E-5
 8.14000E-2, 5.56774E-5
 8.15000E-2, 5.58960E-5
 8.16000E-2, 5.60834E-5
 8.17000E-2, 5.63021E-5
 8.18000E-2, 5.64270E-5
 8.19000E-2, 5.66144E-5
 8.20000E-2, 5.69268E-5
 8.21000E-2, 5.70205E-5
 8.22000E-2, 5.71767E-5
 8.23000E-2, 5.73641E-5
 8.24000E-2, 5.77077E-5
 8.25000E-2, 5.78014E-5
 8.26000E-2, 5.79264E-5
 8.27000E-2, 5.80825E-5
 8.28000E-2, 5.83949E-5
 8.29000E-2, 5.85823E-5
 8.30000E-2, 5.86448E-5
 8.31000E-2, 5.88947E-5
 8.32000E-2, 5.92070E-5
 8.33000E-2, 5.93320E-5
 8.34000E-2, 5.94569E-5
 8.35000E-2, 5.97068E-5
 8.36000E-2, 5.99567E-5
 8.37000E-2, 6.01129E-5
 8.38000E-2, 6.02691E-5
 8.39000E-2, 6.05814E-5
 8.40000E-2, 6.08313E-5
 8.41000E-2, 6.09250E-5
 8.42000E-2, 6.10812E-5
 8.43000E-2, 6.14560E-5
 8.44000E-2, 6.16122E-5
 8.45000E-2, 6.17059E-5
 8.46000E-2, 6.20495E-5
 8.47000E-2, 6.22369E-5
 8.48000E-2, 6.23931E-5
 8.49000E-2, 6.25493E-5
 8.50000E-2, 6.28929E-5
 8.51000E-2, 6.30178E-5
 8.52000E-2, 6.31740E-5
 8.53000E-2, 6.33927E-5
 8.54000E-2, 6.37050E-5
 8.55000E-2, 6.37987E-5
 8.56000E-2, 6.40486E-5
 8.57000E-2, 6.42673E-5
 8.58000E-2, 6.45484E-5
 8.59000E-2, 6.46733E-5
 8.60000E-2, 6.48608E-5
 8.61000E-2, 6.51731E-5
 8.62000E-2, 6.53605E-5
 8.63000E-2, 6.55167E-5
 8.64000E-2, 6.57354E-5
 8.65000E-2, 6.59853E-5
 8.66000E-2, 6.61414E-5
 8.67000E-2, 6.63289E-5
 8.68000E-2, 6.67662E-5
 8.69000E-2, 6.69223E-5
 8.70000E-2, 6.70785E-5
 8.71000E-2, 6.72972E-5
 8.72000E-2, 6.75471E-5
 8.73000E-2, 6.77345E-5
 8.74000E-2, 6.78907E-5
 8.75000E-2, 6.82967E-5
 8.76000E-2, 6.84841E-5
 8.77000E-2, 6.86091E-5
 8.78000E-2, 6.89527E-5
 8.79000E-2, 6.91713E-5
 8.80000E-2, 6.93275E-5
 8.81000E-2, 6.94837E-5
 8.82000E-2, 6.98898E-5
 8.83000E-2, 7.00459E-5
 8.84000E-2, 7.02021E-5
 8.85000E-2, 7.05457E-5
 8.86000E-2, 7.07644E-5
 8.87000E-2, 7.08893E-5
 8.88000E-2, 7.11704E-5
 8.89000E-2, 7.14516E-5
 8.90000E-2, 7.16077E-5
 8.91000E-2, 7.17639E-5
 8.92000E-2, 7.21700E-5
 8.93000E-2, 7.23886E-5
 8.94000E-2, 7.25448E-5
 8.95000E-2, 7.28260E-5
 8.96000E-2, 7.30758E-5
 8.97000E-2, 7.32945E-5
 8.98000E-2, 7.34819E-5
 8.99000E-2, 7.38255E-5
 9.00000E-2, 7.39817E-5
 9.01000E-2, 7.41691E-5
 9.02000E-2, 7.45127E-5
 9.03000E-2, 7.47314E-5
 9.04000E-2, 7.48563E-5
 9.05000E-2, 7.51687E-5
 9.06000E-2, 7.55123E-5
 9.07000E-2, 7.56684E-5
 9.08000E-2, 7.58558E-5
 9.09000E-2, 7.61994E-5
 9.10000E-2, 7.63556E-5
 9.11000E-2, 7.66055E-5
 9.12000E-2, 7.69179E-5
 9.13000E-2, 7.71990E-5
 9.14000E-2, 7.73864E-5
 9.15000E-2, 7.76988E-5
 9.16000E-2, 7.79174E-5
 9.17000E-2, 7.81986E-5
 9.18000E-2, 7.84484E-5
 9.19000E-2, 7.86671E-5
 9.20000E-2, 7.89170E-5
 9.21000E-2, 7.91044E-5
 9.22000E-2, 7.94168E-5
 9.23000E-2, 7.96979E-5
 9.24000E-2, 7.99478E-5
 9.25000E-2, 8.02289E-5
 9.26000E-2, 8.04475E-5
 9.27000E-2, 8.06662E-5
 9.28000E-2, 8.10410E-5
 9.29000E-2, 8.12909E-5
 9.30000E-2, 8.14159E-5
 9.31000E-2, 8.18219E-5
 9.32000E-2, 8.20718E-5
 9.33000E-2, 8.22280E-5
 9.34000E-2, 8.26341E-5
 9.35000E-2, 8.28527E-5
 9.36000E-2, 8.29777E-5
 9.37000E-2, 8.33525E-5
 9.38000E-2, 8.36336E-5
 9.39000E-2, 8.37898E-5
 9.40000E-2, 8.41646E-5
 9.41000E-2, 8.44145E-5
 9.42000E-2, 8.46332E-5
 9.43000E-2, 8.48831E-5
 9.44000E-2, 8.51954E-5
 9.45000E-2, 8.53828E-5
 9.46000E-2, 8.56952E-5
 9.47000E-2, 8.60700E-5
 9.48000E-2, 8.62887E-5
 9.49000E-2, 8.65698E-5
 9.50000E-2, 8.69446E-5
 9.51000E-2, 8.70696E-5
 9.52000E-2, 8.72882E-5
 9.53000E-2, 8.76943E-5
 9.54000E-2, 8.79130E-5
 9.55000E-2, 8.81628E-5
 9.56000E-2, 8.86314E-5
 9.57000E-2, 8.88813E-5
 9.58000E-2, 8.90375E-5
 9.59000E-2, 8.94123E-5
 9.60000E-2, 8.95997E-5
 9.61000E-2, 8.98808E-5
 9.62000E-2, 9.02244E-5
 9.63000E-2, 9.04431E-5
 9.64000E-2, 9.06617E-5
 9.65000E-2, 9.10990E-5
 9.66000E-2, 9.12865E-5
 9.67000E-2, 9.16613E-5
 9.68000E-2, 9.19424E-5
 9.69000E-2, 9.21923E-5
 9.70000E-2, 9.23797E-5
 9.71000E-2, 9.28483E-5
 9.72000E-2, 9.30044E-5
 9.73000E-2, 9.32856E-5
 9.74000E-2, 9.36604E-5
 9.75000E-2, 9.39415E-5
 9.76000E-2, 9.42539E-5
 9.77000E-2, 9.45975E-5
 9.78000E-2, 9.47849E-5
 9.79000E-2, 9.51910E-5
 9.80000E-2, 9.54721E-5
 9.81000E-2, 9.56595E-5
 9.82000E-2, 9.61280E-5
 9.83000E-2, 9.63155E-5
 9.84000E-2, 9.66590E-5
 9.85000E-2, 9.69402E-5
 9.86000E-2, 9.72213E-5
 9.87000E-2, 9.75337E-5
 9.88000E-2, 9.79710E-5
 9.89000E-2, 9.81584E-5
 9.90000E-2, 9.83770E-5
 9.91000E-2, 9.88456E-5
 9.92000E-2, 9.91267E-5
 9.93000E-2, 9.93766E-5
 9.94000E-2, 9.97202E-5
 9.95000E-2, 1.00033E-4
 9.96000E-2, 1.00220E-4
 9.97000E-2, 1.00626E-4
 9.98000E-2, 1.00970E-4
 9.99000E-2, 1.01157E-4
 1.00000E-1, 1.01594E-4
